File: Tensile Al7075/raw-CSV/Group3-190Cfor2h.is_tens.raw.csv
Time sec;Extension mm;Strain 1 %;Load N
0;0;-0.0005171917;27.13142
0.5;0;-3.973219e-006;27.06204
1;0;0.0001516485;27.09
1.5;0.00024;8.175102e-005;27.05817
2;0.00076;0.0001865606;27.63804
2.5;0.00156;0.0002374953;29.06051
3;0.00276;0.0003437257;30.98211
3.5;0.00468;0.0008117669;36.72599
4;0.00708;0.001339955;46.55384
4.5;0.01088;0.00333452;80.13726
5;0.0166;0.009221931;169.4138
5.5;0.02568;0.01913243;322.8015
6;0.03944;0.03286181;551.9939
6.5;0.058;0.05098473;854.7893
7;0.08048;0.07361655;1221.063
7.5;0.10548;0.09844586;1620.688
8;0.13248;0.1258574;2046.59
8.5;0.16144;0.1534582;2499.411
9;0.19196;0.1833641;2974.448
9.5;0.22356;0.2156447;3460.978
10;0.2546;0.2471628;3934.836
10.5;0.28476;0.2761074;4389.428
11;0.31404;0.304312;4826.928
11.5;0.34212;0.33316;5243.698
12;0.36824;0.35932;5623.529
12.5;0.391;0.3817359;5946.801
13;0.41072;0.4024309;6217.358
13.5;0.4274;0.4205755;6437.567
14;0.44092;0.4365223;6602.766
14.5;0.45168;0.4495625;6725.375
15;0.45968;0.4599902;6810.971
15.5;0.46512;0.466826;6864.478
16;0.4688;0.471636;6898.289
16.5;0.4708;0.4744972;6912.075
17;0.47172;0.475906;6915.741
17.5;0.4718;0.4764304;6911.393
18;0.4718;0.476553;6906.763
18.5;0.4718;0.4766589;6902.688
19;0.4718;0.4766594;6899.277
19.5;0.47188;0.4766766;6896.5
20;0.47216;0.4767064;6895.05
20.5;0.47288;0.4768655;6897.571
21;0.47444;0.4787176;6918.953
21.5;0.4774;0.4825785;6961.227
22;0.48204;0.4883422;7017.014
22.5;0.48884;0.4987149;7082.565
23;0.49748;0.5131579;7148.636
23.5;0.50716;0.5315467;7212.936
24;0.51808;0.5530766;7276.426
24.5;0.53012;0.5767914;7334.823
25;0.54296;0.6039824;7387.172
25.5;0.55588;0.6328891;7432.125
26;0.5686;0.6616331;7470.218
26.5;0.58048;0.6886216;7502.323
27;0.59152;0.7136065;7528.821
27.5;0.60076;0.7354815;7548.138
28;0.60848;0.7529991;7563.714
28.5;0.61448;0.7665779;7573.819
29;0.619;0.7777099;7579.827
29.5;0.6221201;0.783937;7581.287
30;0.62404;0.7888802;7578.258
30.5;0.6252;0.791553;7573.983
31;0.6258;0.7936504;7567.935
31.5;0.62628;0.7946778;7562.723
32;0.62676;0.7956438;7560.127
32.5;0.62748;0.7970362;7561.682
33;0.62872;0.7986578;7572.559
33.5;0.6306;0.8017079;7590.862
34;0.6334401;0.8060209;7617.488
34.5;0.63748;0.8124434;7646.269
35;0.64316;0.824054;7667.197
35.5;0.6504;0.8414638;7674.786
36;0.65892;0.8626765;7682.022
36.5;0.66836;0.8848362;7692.648
37;0.6786401;0.9093297;7706.389
37.5;0.68932;0.9342245;7720.938
38;0.70004;0.9593721;7734.161
38.5;0.70996;0.9806111;7746.79
38.998;0.7192801;1.000066;7760.604
39.4;0.72672;1.015755;7773.028
39.9;0.73676;1.035979;7791.527
40.4;0.74872;1.060748;7811.216
40.9;0.76332;1.089779;7830.817
41.4;0.7804;1.123285;7853.03
41.9;0.80068;1.164865;7879.453
42.4;0.82516;1.212676;7911.266
42.9;0.854;1.267355;7946.509
43.4;0.88564;1.327094;7986.594
43.9;0.91856;1.387821;8028.799
44.4;0.95356;1.450951;8073.493
44.9;0.99048;1.519547;8120.658
45.4;1.02904;1.590057;8168.575
45.9;1.0676;1.659762;8215.916
46.4;1.10512;1.727224;8262.879
46.9;1.14232;1.795646;8309.044
47.4;1.17764;1.858191;8349.489
47.9;1.21132;1.919991;8391.062
48.4;1.24304;1.976508;8428.278
48.9;1.27284;2.027487;8463.144
49.4;1.30056;2.077429;8493.321
49.9;1.3246;2.119001;8521.409
50.4;1.3476;2.157917;8550.28
50.9;1.3706;2.198978;8577.187
51.4;1.39256;2.23651;8600.597
51.9;1.41408;2.273263;8625.362
52.4;1.4354;2.31043;8647.366
52.9;1.45696;2.34737;8672.988
53.4;1.47908;2.386698;8696.514
53.9;1.50256;2.426784;8721.907
54.4;1.5278;2.471245;8747.098
54.9;1.55488;2.519334;8773.357
55.4;1.58292;2.568425;8798.688
55.9;1.61212;2.620821;8826.696
56.4;1.64284;2.674137;8856.771
56.9;1.67516;2.731554;8885.529
57.4;1.70788;2.789246;8914.008
57.9;1.74072;2.847681;8944.204
58.4;1.77396;2.907178;8974.271
58.9;1.80768;2.965874;9003.173
59.4;1.84056;3.025328;9030.144
59.9;1.87252;3.081088;9057.923
60.4;1.90352;3.137675;9083.46
60.9;1.93384;3.192075;9108.26
61.4;1.96288;3.244465;9131.742
61.9;1.99052;3.29409;9154.794
62.4;2.01748;3.344169;9175.766
62.9;2.04368;3.390949;9196.384
63.4;2.0694;3.439173;9216.946
63.9;2.0944;3.485183;9234.986
64.4;2.11836;3.529053;9253.213
64.9;2.14284;3.573443;9273.697
65.4;2.1676;3.619767;9289.908
65.9;2.19152;3.664335;9305.595
66.4;2.21524;3.70762;9323.372
66.9;2.23908;3.753586;9340.534
67.4;2.26332;3.798537;9356.946
67.9;2.28844;3.845954;9375.025
68.4;2.3144;3.894918;9390.526
68.9;2.3416;3.947147;9407.888
69.4;2.36916;3.999824;9422.392
69.9;2.3962;4.053275;9437.042
70.4;2.42356;4.105256;9454.847
70.9;2.45128;4.16008;9470.353
71.4;2.4788;4.214204;9486.099
71.9;2.50648;4.268432;9501.733
72.4;2.53384;4.322398;9515.771
72.9;2.5606;4.376111;9529.608
73.4;2.58712;4.428231;9544.184
73.9;2.61268;4.480428;9554.624
74.4;2.63676;4.527697;9567.958
74.9;2.66124;4.577685;9583.262
75.4;2.6858;4.626599;9595.27
75.9;2.70988;4.676215;9606.054
76.4;2.734;4.72514;9619.306
76.9;2.75768;4.774918;9628.054
77.4;2.78032;4.821074;9638.505
77.9;2.80264;4.867265;9649.335
78.4;2.82508;4.913376;9661.49
78.9;2.84756;4.959488;9671.444
79.4;2.87068;5.008512;9683.143
79.9;2.89404;5.056562;9690.159
80.4;2.91712;5.10577;9699.418
80.9;2.94032;5.154435;9708.641
81.4;2.96396;5.20402;9719.084
81.9;2.98796;5.254324;9727.911
82.4;3.01236;5.30704;9737.472
82.9;3.0366;5.357788;9743.301
83.4;3.06068;5.410587;9752.884
83.9;3.08488;5.46124;9761.891
84.4;3.10944;5.514368;9770.818
84.9;3.13388;5.566591;9778.471
85.4;3.15804;5.619094;9784.91
85.9;3.18152;5.6691;9792.177
86.4;3.20476;5.719132;9799.598
86.9;3.228;5.767988;9808.104
87.4;3.25108;5.818336;9814.584
87.9;3.2742;5.867526;9821.903
88.4;3.2972;5.917652;9827.707
88.9;3.32016;5.966103;9834.869
89.4;3.343;6.016492;9840.623
89.9;3.36604;6.065442;9847.654
90.4;3.38884;6.115539;9853.22
90.9;3.41172;6.164536;9860.025
91.4;3.43452;6.214836;9864.35
91.9;3.45756;6.26481;9871.538
92.4;3.48012;6.315889;9874.149
92.9;3.502;6.364603;9877.608
93.4;3.52392;6.413568;9884.553
93.9;3.5464;6.463114;9891.919
94.4;3.56856;6.513648;9894.858
94.9;3.5908;6.563234;9899.668
95.4;3.613;6.613879;9903.399
95.9;3.63548;6.664985;9909.578
96.4;3.6582;6.717334;9913.627
96.9;3.6808;6.770086;9916.408
97.4;3.70232;6.820898;9916.725
97.9;3.7238;6.870484;9922.428
98.4;3.74524;6.92123;9926.73
98.9;3.7662;6.971635;9928.136
99.4;3.78708;7.020669;9933.58
99.9;3.80828;7.071152;9938.047
100.4;3.82892;7.122076;9938.081
100.9;3.84868;7.170749;9939.399
101.4;3.86832;7.218059;9944.767
101.9;3.88816;7.266867;9948.906
102.4;3.90756;7.313882;9949.566
102.9;3.9262;7.36102;9949.818
103.4;3.94572;7.408419;9957.948
103.9;3.96576;7.459396;9961.573
104.4;3.98572;7.510856;9960.318
104.9;4.00524;7.562145;9961.127
105.4;4.02496;7.612701;9964.128
105.9;4.04504;7.665119;9967.405
106.4;4.06512;7.71847;9967.839
106.9;4.08488;7.772064;9966.508
107.4;4.10364;7.822224;9965.286
107.9;4.12184;7.872093;9965.963
108.4;4.1398;7.919465;9969.242
108.9;4.1576;7.968212;9971.815
109.4;4.17568;8.016765;9975.387
109.9;4.19392;8.067543;9976.488
110.4;4.21228;8.118413;9976.202
110.9;4.23;8.167925;9974.548
111.4;4.24776;8.21704;9976.263
111.9;4.2656;8.266927;9976.835
112.4;4.28308;8.316357;9976.628
112.9;4.30016;8.365437;9975.402
113.4;4.31744;8.414037;9978.037
113.9;4.33476;8.463665;9977.845
114.4;4.35216;8.513785;9977.024
114.9;4.36916;8.56127;9975.965
115.4;4.38656;8.610076;9977.119
115.9;4.40424;8.658408;9977.71
116.4;4.42184;8.706436;9974.199
116.9;4.4398;8.752375;9974.793
117.4;4.4584;8.800183;9975.188
117.9;4.47776;8.847098;9972.758
118.4;4.49752;8.893822;9969.088
118.9;4.5178;8.940957;9966.256
119.4;4.53928;8.988354;9964.57
119.9;4.56152;9.037218;9959.552
120.4;4.58512;9.086186;9956.345
120.9;4.61012;9.133918;9950.224
121.4;4.636;9.178767;9943.628
121.9;4.6632;9.224925;9936.206
122.4;4.69204;9.269969;9926.591
122.9;4.72292;9.317277;9916.767
123.4;4.75628;9.365616;9899.373
123.9;4.79052;9.412715;9882.56
124.4;4.82572;9.456445;9863.818
124.9;4.86368;9.498755;9840.263
125.4;4.90464;9.537844;9807.703
125.9;4.94868;9.571749;9770.387
126.4;4.99656;9.601464;9722.2
126.9;5.04936;9.624972;9662.668
127.4;5.10824;9.64222;9584.959
127.9;5.17508;9.651034;9483.415
128.4;5.25028;9.646814;9345.337
128.742;5.30912;9.405606;8693.421
128.752;5.3162;7.118737;6432.245
128.762;5.32716;3.696054;3869.404
128.768;5.33368;1.779877;2560.194