File: Tensile Al7075/raw-CSV/Group1-130Cfor2h.is_tens.raw.csv
Time sec;Extension mm;Strain 1 %;Load N
0;-0.00012;-4.196304e-005;-16.88363
0.7;-0.00012;0.000302747;-17.22627
1.4;-3.999999e-005;0.0002303015;-17.15846
2.1;0.00016;0.0001884193;-16.82164
2.8;0.00116;0.000124855;-15.38093
3.5;0.00344;0.0009260179;-2.404522
4.2;0.00876;0.00634197;83.6707
4.9;0.01892;0.01638304;252.8758
5.6;0.03504;0.0328615;525.8291
6.3;0.0584;0.0561703;915.912
7;0.08944;0.08722645;1424.014
7.7;0.12632;0.1252597;2019.328
8.4;0.16588;0.1641789;2649.203
9.1;0.20636;0.2035221;3280.337
9.8;0.24752;0.2445434;3917.461
10.5;0.28652;0.2830606;4517.401
11.2;0.32252;0.3184861;5065.044
11.9;0.35584;0.3500028;5565.177
12.6;0.38468;0.3768175;5993.387
13.3;0.40772;0.3988413;6337.553
14;0.42572;0.4165027;6601.252
14.7;0.43928;0.4304382;6798.16
15.4;0.4492;0.4395058;6941.397
16.1;0.45628;0.4459722;7040.675
16.8;0.46104;0.4503635;7106.429
17.5;0.46456;0.4533302;7152.342
18.2;0.46796;0.4563346;7199.652
18.9;0.4722;0.4602598;7257.868
19.6;0.47784;0.4651773;7339.073
20.3;0.48524;0.4725508;7447.506
21;0.49564;0.4821715;7599.775
21.7;0.50888;0.494782;7791.382
22.4;0.52392;0.5086463;8003.993
23.1;0.54048;0.5247173;8237.43
23.8;0.55936;0.5437487;8498.678
24.5;0.58156;0.5658333;8800.472
25.2;0.60736;0.5916887;9135.747
25.9;0.6360801;0.6236143;9485.959
26.6;0.665;0.6592891;9796.886
27.3;0.6925601;0.6980652;10044.83
28;0.7176001;0.7397186;10230.11
28.7;0.73868;0.7766852;10356.59
29.4;0.75564;0.8082705;10439.87
30.1;0.76772;0.833595;10485.81
30.8;0.77488;0.8496535;10496.96
31.5;0.77776;0.8574762;10481.33
32.2;0.778;0.8606452;10452.12
32.9;0.778;0.8625345;10429.54
33.6;0.778;0.8636363;10413.52
34.3;0.778;0.8642976;10400.66
35;0.778;0.8650711;10390.27
35.7;0.778;0.8657183;10381.53
36.4;0.77828;0.8658623;10374.23
37.1;0.77968;0.8674781;10378.88
37.8;0.78384;0.8724154;10439.18
38.5;0.7918;0.8820238;10548.3
39.2;0.80444;0.9004116;10680.73
39.9;0.82088;0.9356928;10745.94
40.6;0.84056;0.9820193;10787.35
41.154;0.85732;1.022018;10824.89
41.854;0.88112;1.077595;10880.16
42.554;0.90828;1.141873;10936.7
43.254;0.93844;1.213147;10991.38
43.954;0.97028;1.289676;11040.42
44.654;1.00548;1.372453;11097.32
45.354;1.04308;1.446665;11145.49
46.054;1.08104;1.517248;11192.75
46.754;1.12068;1.591892;11240.06
47.454;1.16188;1.672235;11284.12
48.154;1.20256;1.757899;11320.75
48.854;1.2414;1.845647;11356.29
49.554;1.27816;1.928353;11391.5
50.254;1.3128;2.005676;11418.8
50.954;1.34252;2.069757;11437.84
51.654;1.36956;2.129432;11463.07
52.354;1.39572;2.186467;11490.75
53.054;1.42172;2.242247;11517.38
53.754;1.44872;2.302683;11544.36
54.454;1.47528;2.360773;11563.6
55.154;1.50296;2.4236;11589.55
55.854;1.53276;2.487606;11617.05
56.554;1.56532;2.557099;11643.09
57.254;1.59936;2.631383;11662.74
57.954;1.6346;2.708521;11687.14
58.654;1.67136;2.788271;11711.97
59.354;1.70896;2.870863;11734.5
60.054;1.74468;2.950292;11748.88
60.754;1.77972;3.02676;11774.17
61.454;1.81476;3.103859;11796.34
62.154;1.84628;3.172751;11805
62.854;1.87448;3.234737;11820.63
63.554;1.90248;3.29342;11847.08
64.254;1.9316;3.355975;11872.91
64.954;1.9618;3.42098;11893.67
65.654;1.99292;3.48627;11911.86
66.354;2.0242;3.553229;11928.68
67.054;2.05624;3.620683;11949.07
67.754;2.0906;3.69458;11973.02
68.454;2.12588;3.771735;11985.52
69.154;2.161;3.848681;12002.54
69.854;2.19592;3.922355;12016.05
70.554;2.2306;3.996607;12034.66
71.254;2.26384;4.070045;12045.11
71.954;2.29608;4.139189;12065.01
72.654;2.32896;4.210145;12081.78
73.354;2.36096;4.281646;12095.42
74.054;2.39216;4.351897;12109.11
74.754;2.42184;4.418411;12120.71
75.454;2.45092;4.484139;12137.56
76.154;2.48056;4.549469;12155.57
76.854;2.51048;4.61385;12170.63
77.554;2.54024;4.680464;12183.34
78.254;2.57084;4.746664;12200.34
78.954;2.60284;4.818128;12216.88
79.654;2.63496;4.892033;12226.71
80.354;2.66648;4.964359;12236.27
81.054;2.69792;5.036745;12247.89
81.754;2.72968;5.109172;12261.72
82.454;2.76212;5.185239;12274.65
83.154;2.79288;5.256216;12278.13
83.854;2.82212;5.325186;12286.78
84.554;2.85112;5.391487;12301.81
85.254;2.88084;5.456558;12318
85.954;2.91068;5.524472;12328.65
86.654;2.94036;5.592068;12339.59
87.354;2.97104;5.662461;12353.1
88.054;3.00216;5.734911;12364.62
88.754;3.03392;5.810162;12374.56
89.454;3.0648;5.882765;12379.36
90.154;3.09636;5.956167;12392.44
90.854;3.1276;6.031659;12396.14
91.554;3.15632;6.100351;12396.94
92.254;3.18392;6.164633;12404.08
92.954;3.21132;6.229215;12417.93
93.654;3.23916;6.293079;12431.88
94.354;3.26768;6.361336;12446.1
95.054;3.2976;6.43262;12458.75
95.754;3.327;6.503185;12459.31
96.454;3.35608;6.571348;12466.73
97.154;3.38632;6.641503;12480.18
97.854;3.41772;6.715187;12490.68
98.554;3.44972;6.791317;12495.81
99.254;3.48112;6.868538;12498.16
99.954;3.51104;6.942859;12497.79
100.654;3.54036;7.016303;12504.64
101.354;3.5682;7.083609;12506.86
102.054;3.5948;7.146388;12514.72
102.754;3.6224;7.2116;12529.76
103.454;3.64964;7.28015;12534.73
104.154;3.67688;7.349562;12542.07
104.854;3.70436;7.417758;12550.28
105.554;3.731;7.485037;12552.49
106.254;3.75772;7.551738;12560.92
106.954;3.78536;7.620047;12570.41
107.654;3.81388;7.691692;12580.47
108.354;3.84264;7.76637;12581.91
109.054;3.87036;7.836876;12580.48
109.754;3.89856;7.908678;12589.31
110.454;3.9266;7.981423;12592.49
111.154;3.9542;8.05341;12594.85
111.854;3.98148;8.124363;12597.18
112.554;4.00772;8.193282;12598.02
113.254;4.03412;8.261149;12607.28
113.954;4.061;8.331396;12614.14
114.654;4.08744;8.402018;12617.96
115.354;4.11376;8.471034;12620.71
116.054;4.13908;8.539869;12620.45
116.754;4.16432;8.607393;12625.79
117.454;4.18964;8.674608;12630.63
118.154;4.21556;8.744511;12639.76
118.854;4.242;8.816571;12644.69
119.554;4.26824;8.890474;12646.36
120.254;4.29432;8.962316;12648.2
120.954;4.32008;9.035437;12648.66
121.654;4.34584;9.107061;12651.78
122.354;4.37128;9.177694;12653.04
123.054;4.3968;9.248948;12658.85
123.754;4.42204;9.321967;12657.65
124.454;4.44484;9.389661;12646.73
125.154;4.46644;9.453423;12647.19
125.854;4.48852;9.517104;12660.14
126.554;4.51116;9.582396;12668.28
127.254;4.53432;9.649777;12676.64
127.954;4.55812;9.719266;12680.91
128.654;4.5828;9.790476;12689.03
129.354;4.60852;9.86753;12691.65
130.054;4.63344;9.94542;12684.6
130.754;4.65676;10.01833;12673.67
131.454;4.67944;10.08799;12673.88
132.154;4.7018;10.15697;12676.49
132.854;4.72368;10.2257;12679.65
133.554;4.74596;10.2949;12686.23
134.254;4.7684;10.3666;12689.85
134.954;4.78968;10.43594;12683.01
135.654;4.80992;10.50196;12680.26
136.354;4.83012;10.56754;12683.63
137.054;4.85008;10.63245;12686.71
137.754;4.87016;10.69809;12690.54
138.454;4.89172;10.76723;12706.35
139.154;4.9148;10.8437;12714.91
139.854;4.9378;10.92368;12708.34
140.554;4.9596;11.00218;12696.03
141.254;4.98076;11.0788;12691.81
141.954;5.00064;11.15106;12683.56
142.654;5.01924;11.21783;12677.88
143.354;5.03624;11.28054;12670.59
144.054;5.05248;11.33668;12670.82
144.754;5.06932;11.39468;12684.48
145.454;5.08736;11.45525;12702.79
146.154;5.10744;11.52417;12721.6
146.854;5.12908;11.60242;12730.09
147.554;5.1516;11.68923;12724.15
148.254;5.17304;11.77644;12703.57
148.954;5.19248;11.85682;12684.27
149.654;5.20968;11.92818;12668.59
150.354;5.22436;11.98804;12653.02
151.054;5.238481;12.04259;12653.44
151.754;5.25292;12.0955;12668.45
152.454;5.26936;12.15167;12697.35
153.154;5.28836;12.22;12725.11
153.854;5.30868;12.29927;12729.71
154.554;5.32916;12.38565;12717.21
155.254;5.34916;12.47403;12699.38
155.954;5.36756;12.55691;12678.54
156.654;5.383521;12.62908;12658.44
157.354;5.3978;12.69121;12647.84
158.054;5.41164;12.74802;12651.23
158.754;5.425561;12.80462;12661.38
159.454;5.43972;12.861;12674.06
160.154;5.45524;12.92255;12692.67
160.854;5.47256;12.99203;12710.06
161.554;5.491;13.07498;12711.09
162.254;5.509401;13.16299;12692.34
162.954;5.5272;13.25076;12675.59
163.654;5.54348;13.33282;12655.55
164.354;5.55804;13.40421;12639.73
165.054;5.57012;13.46592;12621.23
165.754;5.58088;13.51715;12612.95
166.454;5.59216;13.56507;12625.11
167.154;5.6052;13.61674;12656.51
167.854;5.6206;13.67903;12693.05
168.554;5.63828;13.76024;12708.76
169.254;5.656841;13.85685;12690.79
169.954;5.674401;13.9582;12651.08
170.654;5.6902;14.0467;12620.82
171.354;5.702641;14.11773;12591.98
172.054;5.71216;14.1718;12568.59
172.754;5.72012;14.21325;12556.76
173.454;5.7286;14.25066;12567.15
174.154;5.73972;14.29195;12612.62
174.854;5.75428;14.34569;12676.85
175.554;5.77352;14.42941;12718.02
176.254;5.79556;14.56322;12660.31
176.954;5.815;14.6943;12578.61
177.654;5.82924;14.78177;12537.1
178.354;5.83788;14.83689;12501.02
179.054;5.84348;14.87292;12472.91
179.754;5.8486;14.89974;12464.48
180.454;5.856;14.92607;12497.29
181.154;5.868;14.9623;12584.07
181.854;5.88684;15.02415;12701.58
182.554;5.91012;15.16607;12650.9
183.254;5.93096;15.317;12520.34
183.954;5.94628;15.40771;12489.48
184.654;5.957001;15.46981;12472.9
185.354;5.96408;15.51285;12451.47
186.054;5.96956;15.54444;12438.77
186.754;5.97628;15.57383;12458.95
187.454;5.98672;15.60935;12526.88
188.154;6.0026;15.66446;12624.19
188.854;6.023;15.78467;12605.61
189.554;6.04216;15.93574;12464.03
190.254;6.05736;16.02778;12435.72
190.954;6.06828;16.09224;12421.65
191.654;6.07624;16.13981;12408.02
192.354;6.0828;16.17569;12402.85
193.054;6.09016;16.20988;12421.41
193.754;6.09984;16.24795;12468.63
194.454;6.11396;16.30572;12538.93
195.154;6.13172;16.42022;12499.52
195.854;6.14828;16.55113;12378.54
196.554;6.16092;16.63054;12351.48
197.254;6.17036;16.68737;12340.9
197.954;6.179;16.73276;12347.28
198.654;6.18948;16.7812;12382.82
199.354;6.20252;16.84433;12420.81
200.054;6.21712;16.93999;12385.92
200.754;6.23;17.04082;12305.13
201.454;6.23968;17.1071;12270.29
202.154;6.24804;17.15623;12266.2
202.854;6.25672;17.20098;12282.43
203.554;6.26716;17.25197;12314.26
204.254;6.28044;17.32614;12326.36
204.954;6.29488;17.43659;12248.62
205.616;6.30668;17.50428;11974.39
205.63;6.31144;15.94937;8075.521
205.644;6.31768;13.67732;3581.511