File: Tensile tests/raw-CSV/Group2-160Cfor2h.is_tens.raw.csv
Time sec;Extension mm;Strain 1 %;Load N
0;0;-3.021269e-005;-50.23726
0.5;0;8.243669e-005;-50.97076
1;0;0.0001693124;-50.5225
1.5;0.00024;-0.0001637603;-50.45756
2;0.00072;-0.0002098441;-49.99008
2.5;0.00144;0.000203024;-48.57751
3;0.00248;0.0001355764;-46.829
3.5;0.00396;0.0003425739;-43.33259
4;0.00604;0.0009669719;-36.87635
4.5;0.00912;0.001676163;-21.84366
5;0.01368;0.004491393;23.25031
5.5;0.021;0.01276039;145.7942
6;0.03184;0.0259803;328.3284
6.5;0.04688;0.04227962;574.7458
7;0.06660001;0.063603;890.418
7.5;0.0902;0.08820447;1268.596
8;0.11676;0.1164813;1692.383
8.5;0.14532;0.1462299;2138.58
9;0.17512;0.1768799;2602.341
9.5;0.20608;0.2086442;3076.135
10;0.23844;0.2417861;3566.153
10.5;0.26924;0.2724088;4033.237
11;0.29896;0.3024221;4478.694
11.5;0.32776;0.3316643;4905.629
12;0.35496;0.3594253;5308.577
12.5;0.37972;0.3834595;5671.4
13;0.40072;0.4041663;5978.251
13.5;0.41856;0.4215598;6233.954
14;0.43336;0.4364928;6448.6
14.5;0.44528;0.4484182;6619.116
15;0.45432;0.4574241;6747.228
15.5;0.4608;0.4636284;6836.84
16;0.465;0.467255;6894.504
16.5;0.4676;0.4699549;6928.285
17;0.46904;0.4710511;6945.419
17.5;0.46972;0.4715428;6952.866
18;0.47008;0.4714215;6954.876
18.5;0.4702;0.4718939;6954.695
19;0.47032;0.4715902;6953.885
19.5;0.4706;0.4716188;6953.707
20;0.47144;0.4722557;6959.438
20.5;0.473;0.4738065;6983.329
21;0.47584;0.4767956;7025.386
21.5;0.48016;0.4809792;7089.431
22;0.48676;0.4875146;7186.288
22.5;0.49568;0.4963472;7315.624
23;0.5072;0.5078097;7478.96
23.5;0.52032;0.5211341;7665.571
24;0.53532;0.5362238;7876.428
24.5;0.55204;0.5529336;8106.589
25;0.57048;0.5711644;8358.679
25.5;0.59068;0.591231;8630.06
26;0.61216;0.6135622;8912.332
26.5;0.63456;0.6381528;9195.855
27;0.65736;0.6646787;9468.248
27.5;0.6794401;0.6921321;9707.53
28;0.70056;0.7213556;9910.396
28.5;0.72024;0.7522827;10075.37
29;0.73808;0.7819063;10202.74
29.5;0.75348;0.8096421;10297.77
30;0.76608;0.8342433;10363.53
30.5;0.77564;0.8539979;10403.75
31;0.7816801;0.8677479;10419.39
31.5;0.78472;0.8759649;10413.91
32;0.78576;0.8798892;10397.36
32.5;0.7858;0.8819131;10378.09
33;0.7858;0.8830585;10362.18
33.5;0.7858;0.8840403;10349.9
34;0.7858;0.8851068;10340.13
34.5;0.7858;0.8855503;10331.87
35;0.7858;0.8860759;10324.44
35.5;0.7858;0.8864;10318.44
36;0.7858;0.8869966;10312.37
36.5;0.7858;0.8872082;10307.36
37;0.7858;0.8872154;10302.79
37.5;0.78584;0.8871133;10298.78
38;0.78648;0.8875686;10296.09
38.5;0.7880401;0.8892105;10309.9
39;0.79144;0.8931748;10361.61
39.5;0.7972;0.9002591;10441.86
40;0.80556;0.9113953;10543.98
40.5;0.81672;0.9292954;10634.83
41;0.83028;0.9611234;10677.39
41.5;0.84552;0.9976673;10712.27
41.836;0.85648;1.02404;10738.55
42.336;0.8748;1.067735;10785.32
42.836;0.8950401;1.11586;10830.03
43.336;0.91692;1.17041;10872.99
43.836;0.93964;1.22479;10914.79
44.336;0.96328;1.283205;10954.76
44.836;0.98816;1.343286;10994.6
45.336;1.01456;1.408049;11033.55
45.836;1.04052;1.474274;11063.51
46.336;1.06436;1.531096;11089.36
46.836;1.087;1.587522;11116.88
47.336;1.10908;1.639769;11144.5
47.836;1.13092;1.691594;11169.53
48.336;1.1524;1.741942;11192.76
48.836;1.17332;1.790787;11213.28
49.336;1.1932;1.835449;11232.14
49.836;1.2124;1.880354;11250.11
50.336;1.23144;1.921407;11269.51
50.836;1.25028;1.961871;11290.75
51.336;1.2704;2.004914;11316.06
51.836;1.29204;2.050142;11339.06
52.336;1.31392;2.096583;11352.27
52.836;1.3354;2.140255;11370.37
53.336;1.35816;2.186236;11393.96
53.836;1.38276;2.235618;11417.07
54.336;1.40832;2.287597;11434.24
54.836;1.43492;2.341022;11456.33
55.336;1.46184;2.395706;11472.03
55.836;1.48848;2.451405;11490.32
56.336;1.51632;2.510452;11514.57
56.836;1.54476;2.571315;11531.43
57.336;1.5726;2.632512;11547.64
57.836;1.59916;2.690488;11563.24
58.336;1.62472;2.746384;11579.31
58.836;1.64928;2.800055;11595.37
59.336;1.67308;2.852733;11611.25
59.836;1.696;2.901552;11626.01
60.336;1.71736;2.948544;11635.05
60.836;1.73764;2.991735;11648.64
61.336;1.7572;3.033738;11663.24
61.836;1.77656;3.074185;11678.58
62.336;1.79588;3.115481;11695.23
62.836;1.816;3.157305;11712.98
63.336;1.83692;3.199604;11730.04
63.836;1.85784;3.24389;11740.99
64.336;1.87948;3.288657;11756.78
64.836;1.90192;3.33581;11769.79
65.336;1.9256;3.385318;11786.79
65.836;1.95096;3.439616;11803.21
66.336;1.97712;3.495503;11813.91
66.836;2.00284;3.552472;11822.94
67.336;2.02856;3.607888;11835.95
67.836;2.05456;3.66496;11849.42
68.336;2.08072;3.723329;11861.74
68.836;2.10652;3.780691;11872.38
69.336;2.13072;3.834932;11879.52
69.836;2.15456;3.887367;11893.73
70.336;2.17808;3.939252;11905.54
70.836;2.20084;3.990009;11917.69
71.336;2.22316;4.039118;11927.77
71.836;2.24472;4.086404;11936.55
72.336;2.26504;4.130473;11943.68
72.836;2.28552;4.174907;11959.67
73.336;2.30652;4.219027;11976.14
73.836;2.32824;4.266275;11989.74
74.336;2.34944;4.311874;11996.85
74.836;2.37036;4.35682;12005.19
75.336;2.391;4.401083;12013.94
75.836;2.41264;4.445581;12029.72
76.336;2.43488;4.492863;12043.07
76.836;2.45832;4.540842;12056.09
77.336;2.48296;4.59213;12069.31
77.836;2.50876;4.644633;12078.55
78.336;2.5344;4.698502;12084.27
78.836;2.56036;4.751102;12094.06
79.336;2.58752;4.807105;12106.17
79.836;2.6152;4.862703;12115.09
80.336;2.64204;4.917398;12120.06
80.836;2.66892;4.972439;12131.82
81.336;2.69612;5.0254;12141.45
81.836;2.72276;5.078691;12147.65
82.336;2.74948;5.130138;12158.61
82.836;2.77544;5.180039;12162.85
83.336;2.80008;5.226973;12171.65
83.836;2.8258;5.274986;12188.53
84.336;2.85152;5.323838;12196.84
84.836;2.87692;5.372851;12205.2
85.336;2.90204;5.42216;12211.74
85.836;2.92656;5.469408;12219.24
86.336;2.95092;5.518759;12227.2
86.836;2.97532;5.566481;12239.2
87.336;3.00016;5.616924;12248.96
87.836;3.02508;5.667941;12258.46
88.336;3.04956;5.719583;12261.06
88.836;3.0734;5.768757;12267.14
89.336;3.09724;5.818909;12275.81
89.836;3.1212;5.868939;12285.81
90.336;3.14544;5.921651;12295.18
90.836;3.16924;5.97343;12298.85
91.336;3.19224;6.024387;12302.46
91.836;3.21464;6.07323;12307.6
92.336;3.23716;6.122328;12316.69
92.836;3.26004;6.171507;12326.47
93.336;3.28292;6.221583;12333
93.836;3.30544;6.271025;12337.23
94.336;3.32748;6.319106;12341.97
94.836;3.34928;6.367505;12348.09
95.336;3.3712;6.415579;12355.59
95.836;3.39344;6.464617;12363.38
96.336;3.41572;6.513997;12368.07
96.836;3.43792;6.563381;12373.17
97.336;3.46008;6.611249;12378.27
97.836;3.48264;6.662324;12387.3
98.336;3.50552;6.712019;12392.98
98.836;3.5288;6.764983;12400.27
99.336;3.55224;6.817222;12403.26
99.836;3.57508;6.869279;12402.81
100.336;3.5982;6.920896;12409.24
100.836;3.62188;6.973846;12417.9
101.336;3.64512;7.026371;12417.75
101.836;3.66724;7.078405;12416.38
102.336;3.689;7.127005;12419.07
102.836;3.71024;7.17575;12423.27
103.336;3.73132;7.22304;12428.22
103.836;3.7524;7.270803;12435.55
104.336;3.77356;7.317562;12441.17
104.836;3.79512;7.366294;12450.79
105.336;3.81704;7.415199;12455.13
105.836;3.83876;7.465293;12456.53
106.336;3.8598;7.512686;12456.35
106.836;3.88152;7.561479;12465.85
107.336;3.90376;7.61145;12471
107.836;3.92552;7.661553;12470.44
108.336;3.94732;7.710671;12474.87
108.836;3.97008;7.762162;12483.65
109.336;3.99284;7.813888;12485.02
109.836;4.01548;7.866286;12485.33
110.336;4.038;7.918553;12486.97
110.836;4.06036;7.969878;12489.46
111.336;4.08216;8.020715;12487.73
111.836;4.10372;8.070095;12490.04
112.336;4.12572;8.120237;12498.85
112.836;4.14796;8.172522;12502.83
113.336;4.1698;8.223189;12503.31
113.836;4.19176;8.273681;12507.33
114.336;4.21344;8.32494;12507.78
114.836;4.2348;8.374507;12506.57
115.336;4.25512;8.42197;12504.23
115.836;4.2754;8.468141;12507.9
116.336;4.29572;8.515242;12514.72
116.836;4.31628;8.561292;12519.56
117.336;4.33756;8.610155;12527.77
117.836;4.35928;8.658051;12531.67
118.336;4.38084;8.707087;12530.19
118.836;4.40252;8.755478;12530.74
119.336;4.42476;8.803723;12535.54
119.836;4.44732;8.852915;12537.87
120.336;4.47068;8.903696;12542.38
120.836;4.49468;8.953868;12543.33
121.336;4.51848;9.00417;12540.5
121.836;4.5426;9.054561;12540.81
122.336;4.56768;9.105121;12545.6
122.836;4.59312;9.155808;12543.31
123.336;4.61896;9.206957;12543.84
123.836;4.64484;9.25636;12540.43
124.336;4.67096;9.304979;12540.84
124.836;4.69772;9.353059;12543.36
125.336;4.72484;9.399554;12542.18
125.836;4.75308;9.447129;12544.98
126.336;4.78232;9.492147;12543.67
126.836;4.81264;9.537907;12543.18
127.336;4.84424;9.581438;12541.05
127.836;4.87696;9.623782;12537.82
128.336;4.911841;9.664146;12535.65
128.836;4.94892;9.703032;12531.2
129.336;4.98784;9.739879;12526
129.836;5.03068;9.773835;12522.71
130.336;5.0774;9.804824;12511.44
130.836;5.12908;9.832767;12499.67
131.336;5.18648;9.857289;12483.65
131.836;5.2504;9.877806;12462.05
132.336;5.32236;9.893649;12430.75
132.836;5.40276;9.90647;12390.43
133.336;5.49408;9.91492;12328.24
133.836;5.59748;9.919458;12228.91
134.304;5.70696;9.914871;11807.86
134.314;5.71172;8.876887;9234.51
134.324;5.7208;6.459507;5827.209
134.332;5.72808;4.502182;3449.468