File: Tensile tests/raw-CSV/Group5-250Cfor2h.is_tens.raw.csv
Time sec;Extension mm;Strain 1 %;Load N;;;;;;;;;
0;0;-0.0006060383;-37.35496;;;;;;;;;
0.6;0;-0.0001801855;-38.35377;;;;;;;;;
1.2;0.00008;2.370052e-005;-37.67026;;;;;;;;;
1.8;0.00048;-9.747473e-005;-37.48408;;;;;;;;;
2.4;0.00116;0.0001994609;-36.28039;;;;;;;;;
3;0.00224;7.71588e-005;-34.22466;;;;;;;;;
3.6;0.00416;0.000608409;-29.65928;;;;;;;;;
4.2;0.0072;0.001305914;-17.69339;;;;;;;;;
4.8;0.01204;0.003853338;27.37441;;;;;;;;;
5.4;0.02048;0.01261902;165.9909;;;;;;;;;
6;0.03412;0.02604707;407.0671;;;;;;;;;
6.6;0.0544;0.04275392;753.494;;;;;;;;;
7.2;0.08128;0.06456394;1206.022;;;;;;;;;
7.8;0.11224;0.09140071;1717.551;;;;;;;;;
8.4;0.14692;0.1236662;2276.237;;;;;;;;;
9;0.1848;0.160711;2831.044;;;;;;;;;
9.6;0.22448;0.2115206;3172.735;;;;;;;;;
10.2;0.26292;0.2897696;3293.297;;;;;;;;;
10.8;0.29692;0.3590102;3371.657;;;;;;;;;
11.4;0.32524;0.4125438;3435.617;;;;;;;;;
12;0.34628;0.4512627;3485.6;;;;;;;;;
12.6;0.35884;0.4728778;3520.694;;;;;;;;;
13.2;0.36452;0.4827182;3534.061;;;;;;;;;
13.8;0.36512;0.4843034;3523.482;;;;;;;;;
14.4;0.36504;0.4846415;3515.143;;;;;;;;;
15;0.36464;0.4845946;3510.04;;;;;;;;;
15.6;0.36356;0.4849629;3506.387;;;;;;;;;
16.2;0.36224;0.4846251;3502.55;;;;;;;;;
16.8;0.36052;0.484156;3497.224;;;;;;;;;
17.4;0.35868;0.4841536;3490.655;;;;;;;;;
18;0.35696;0.4837971;3482.723;;;;;;;;;
18.6;0.35552;0.4836246;3474.222;;;;;;;;;
19.2;0.35468;0.4831135;3467.497;;;;;;;;;
19.8;0.3542;0.4828643;3462.479;;;;;;;;;
20.4;0.35416;0.4826792;3459.81;;;;;;;;;
21;0.35416;0.4828773;3458.68;;;;;;;;;
21.6;0.35416;0.4830349;3457.818;;;;;;;;;
22.2;0.35424;0.4828039;3457.439;;;;;;;;;
22.8;0.35456;0.483064;3456.731;;;;;;;;;
23.4;0.3558;0.4828821;3456.797;;;;;;;;;
24;0.35788;0.4833067;3459.536;;;;;;;;;
24.6;0.36128;0.4843519;3468.693;;;;;;;;;
25.2;0.36684;0.4863083;3513.885;;;;;;;;;
25.8;0.37728;0.4961465;3656.954;;;;;;;;;
26.4;0.39512;0.4984337;3674.589;;;;;;;;;
27;0.42112;0.4998608;3679.479;;;;;;;;;
27.6;0.45528;0.6250966;3683.45;;;;;;;;;
28.2;0.48788;0.7072006;3769.051;;;;;;;;;
28.8;0.5177601;0.7658036;3822.665;;;;;;;;;
29.4;0.54436;0.7867648;3869.582;;;;;;;;;
30;0.56832;0.8156314;3927.377;;;;;;;;;
30.6;0.58864;0.8645579;3952.496;;;;;;;;;
31.2;0.6028;0.9109039;3996.877;;;;;;;;;
31.8;0.61016;0.924544;4014.6;;;;;;;;;
32.4;0.61172;0.9268334;4004.648;;;;;;;;;
33;0.61172;0.9275052;3992.211;;;;;;;;;
33.6;0.6116401;0.9275799;3984.796;;;;;;;;;
34.2;0.61156;0.9270877;3979.708;;;;;;;;;
34.8;0.61116;0.9275806;3976.134;;;;;;;;;
35.4;0.6108001;0.92757;3973.097;;;;;;;;;
36;0.61052;0.9278241;3971.045;;;;;;;;;
36.6;0.61032;0.9276872;3969.095;;;;;;;;;
37.2;0.61028;0.9271588;3967.811;;;;;;;;;
37.8;0.61028;0.9273436;3966.114;;;;;;;;;
38.4;0.61028;0.9272606;3964.682;;;;;;;;;
39;0.61028;0.9271788;3963.519;;;;;;;;;
39.6;0.61028;0.9272107;3962.785;;;;;;;;;
40.2;0.61052;0.9272895;3961.775;;;;;;;;;
40.8;0.61116;0.9275133;3961.085;;;;;;;;;
41.4;0.6126;0.9276335;3964.028;;;;;;;;;
42;0.61732;0.9320063;4037.805;;;;;;;;;
42.6;0.62676;0.9398468;4147.976;;;;;;;;;
43.2;0.64252;0.9428336;4162.558;;;;;;;;;
43.8;0.6655201;0.9393273;4143.686;;;;;;;;;
44.4;0.6969601;0.9989954;4165.17;;;;;;;;;
44.804;0.7189201;1.11295;4150.808;;;;;;;;;
45.404;0.75488;1.103838;4204.983;;;;;;;;;
46.004;0.79224;1.240123;4302.82;;;;;;;;;
46.604;0.83084;1.253958;4358.382;;;;;;;;;
47.204;0.87556;1.349607;4407.622;;;;;;;;;
47.804;0.92248;1.417866;4479.553;;;;;;;;;
48.404;0.96864;1.487691;4551.606;;;;;;;;;
49.004;1.01772;1.524737;4620.72;;;;;;;;;
49.604;1.0652;1.60606;4692.013;;;;;;;;;
50.204;1.1124;1.740518;4748.096;;;;;;;;;
50.804;1.15728;1.751448;4814.662;;;;;;;;;
51.404;1.2018;1.808656;4870.287;;;;;;;;;
52.004;1.24248;1.930389;4908.651;;;;;;;;;
52.604;1.28392;1.903984;4961.943;;;;;;;;;
53.204;1.321;2.041216;5003.497;;;;;;;;;
53.804;1.35648;2.051842;5053.739;;;;;;;;;
54.404;1.39352;2.151995;5118.176;;;;;;;;;
55.004;1.42392;2.253077;5088.102;;;;;;;;;
55.604;1.45264;2.214968;5150.719;;;;;;;;;
56.204;1.48496;2.216779;5196.985;;;;;;;;;
56.804;1.52312;2.301568;5209.592;;;;;;;;;
57.404;1.55884;2.421015;5287.924;;;;;;;;;
58.004;1.59468;2.427516;5268.279;;;;;;;;;
58.604;1.6344;2.437409;5329.207;;;;;;;;;
59.204;1.67536;2.652562;5356.215;;;;;;;;;
59.804;1.71404;2.591082;5418.967;;;;;;;;;
60.404;1.75812;2.59341;5464.539;;;;;;;;;
61.004;1.80972;2.768445;5468.544;;;;;;;;;
61.604;1.85336;2.906577;5538.589;;;;;;;;;
62.204;1.89488;2.91617;5559.123;;;;;;;;;
62.804;1.9378;2.922363;5577.803;;;;;;;;;
63.404;1.97996;3.101941;5648.835;;;;;;;;;
64.004;2.01968;3.034473;5660.407;;;;;;;;;
64.604;2.06568;3.040324;5738.273;;;;;;;;;
65.204;2.10784;3.35747;5764.917;;;;;;;;;
65.804;2.13848;3.385143;5798.99;;;;;;;;;
66.404;2.16444;3.402026;5833.989;;;;;;;;;
67.004;2.18852;3.404877;5783.573;;;;;;;;;
67.604;2.2128;3.40387;5809.776;;;;;;;;;
68.204;2.24032;3.408924;5842.554;;;;;;;;;
68.804;2.2744;3.393129;5832.276;;;;;;;;;
69.404;2.31472;3.583949;5883.786;;;;;;;;;
70.004;2.35632;3.587831;5933.503;;;;;;;;;
70.604;2.40356;3.708918;5953.51;;;;;;;;;
71.204;2.43868;4.031526;6004.365;;;;;;;;;
71.804;2.4614;4.043509;6000.526;;;;;;;;;
72.404;2.4768;4.043929;5977.582;;;;;;;;;
73.004;2.48716;4.045686;5990.11;;;;;;;;;
73.604;2.49556;4.047374;6003.067;;;;;;;;;
74.204;2.5046;4.049196;6008.048;;;;;;;;;
74.804;2.51756;4.053023;6029.448;;;;;;;;;
75.404;2.53836;4.051178;6037.604;;;;;;;;;
76.004;2.57056;4.05319;6079.217;;;;;;;;;
76.604;2.61536;4.0611;6116.283;;;;;;;;;
77.204;2.67252;4.104212;6063.721;;;;;;;;;
77.804;2.74224;4.336041;6099.117;;;;;;;;;
78.404;2.81668;4.293963;6178.204;;;;;;;;;
79.004;2.89424;4.842467;6212.326;;;;;;;;;
79.548;2.94564;4.869112;6162.478;;;;;;;;;
80.148;2.9936;4.873921;6247.226;;;;;;;;;
80.748;3.0338;4.871372;6292.014;;;;;;;;;
81.348;3.07164;4.809822;6323.652;;;;;;;;;
81.948;3.11312;4.799595;6280.03;;;;;;;;;
82.548;3.15372;5.049367;6352.147;;;;;;;;;
83.148;3.1846;5.087047;6342.579;;;;;;;;;
83.748;3.213;5.086958;6372.128;;;;;;;;;
84.348;3.2422;5.065677;6387.031;;;;;;;;;
84.948;3.27252;5.285215;6353.032;;;;;;;;;
85.548;3.28772;5.46822;6382.119;;;;;;;;;
86.148;3.29168;5.496256;6377.224;;;;;;;;;
86.748;3.29172;5.500437;6349.143;;;;;;;;;
87.348;3.2916;5.502253;6330.676;;;;;;;;;
87.948;3.29156;5.502968;6317.994;;;;;;;;;
88.548;3.29156;5.503289;6308.372;;;;;;;;;
89.148;3.29164;5.503316;6300.303;;;;;;;;;
89.748;3.29232;5.503695;6295.384;;;;;;;;;
90.348;3.29792;5.508867;6367.249;;;;;;;;;
90.948;3.31416;5.513675;6477.338;;;;;;;;;
91.548;3.34648;5.517996;6455.822;;;;;;;;;
92.148;3.39612;5.521646;6416.117;;;;;;;;;
92.748;3.46556;5.524756;6417.091;;;;;;;;;
93.348;3.5612;5.478781;6494.714;;;;;;;;;
93.948;3.66508;6.451059;6460.757;;;;;;;;;
94.548;3.7182;6.840421;6447.989;;;;;;;;;
95.148;3.73668;6.837886;6424.094;;;;;;;;;
95.748;3.7354;6.836647;6387.043;;;;;;;;;
96.348;3.72424;6.832929;6310.272;;;;;;;;;
96.948;3.69692;6.789865;5871.59;;;;;;;;;
97.548;3.65408;6.717861;5196.433;;;;;;;;;
98.142;3.60432;6.639459;4443.914;;;;;;;;;
98.736;3.55264;6.562674;3697.044;;;;;;;;;
99.336;3.5062;6.494354;3045.777;;;;;;;;;
99.936;3.4708;6.444983;2555.889;;;;;;;;;
100.536;3.44976;6.414896;2266.884;;;;;;;;;
101.136;3.44496;6.406352;2204.409;;;;;;;;;
101.736;3.44736;6.4062;2217.362;;;;;;;;;
102.336;3.46088;6.414584;2361.073;;;;;;;;;
102.936;3.49612;6.451754;2929.398;;;;;;;;;
103.446;3.54568;6.502515;3688.945;;;;;;;;;
103.856;3.5972;6.556202;4448.912;;;;;;;;;
104.214;3.6506;6.610528;5211.568;;;;;;;;;
104.542;3.70604;6.667659;5975.942;;;;;;;;;
105.016;3.79688;6.704301;6433.554;;;;;;;;;
105.616;3.93532;6.70506;6542.953;;;;;;;;;
106.216;4.10176;6.739564;6575.209;;;;;;;;;
106.816;4.27076;7.945573;6578.903;;;;;;;;;
107.416;4.37368;8.308587;6534.188;;;;;;;;;
108.016;4.43332;8.299805;6568.083;;;;;;;;;
108.616;4.45516;8.296794;6592.625;;;;;;;;;
109.216;4.45308;8.29437;6540.807;;;;;;;;;
109.816;4.43588;8.281813;6339.059;;;;;;;;;
110.414;4.39572;8.229833;5708.834;;;;;;;;;
110.92;4.34564;8.158181;4951.609;;;;;;;;;
111.38;4.29272;8.083291;4191.218;;;;;;;;;
111.828;4.23832;8.005604;3431.333;;;;;;;;;
112.286;4.182;7.926309;2671.145;;;;;;;;;
112.79;4.1248;7.847503;1910.04;;;;;;;;;
113.372;4.06908;7.770713;1179.493;;;;;;;;;
113.972;4.0288;7.715768;669.9894;;;;;;;;;
114.572;4.00948;7.689628;433.0825;;;;;;;;;
115.172;4.00816;7.68556;427.5016;;;;;;;;;
115.772;4.01736;7.688376;493.5589;;;;;;;;;
116.372;4.049;7.722311;1008.703;;;;;;;;;
116.886;4.09824;7.777161;1765.548;;;;;;;;;
117.292;4.1506;7.833482;2532.934;;;;;;;;;
117.642;4.20492;7.891841;3295.727;;;;;;;;;
117.958;4.26052;7.950731;4057.916;;;;;;;;;
118.252;4.3178;8.012069;4830.98;;;;;;;;;
118.532;4.37648;8.07558;5599.607;;;;;;;;;
118.822;4.4412;8.145659;6367.543;;;;;;;;;
119.384;4.579;8.193248;6615.01;;;;;;;;;
119.984;4.748;8.150978;6626.262;;;;;;;;;
120.584;4.94272;8.680207;6641.265;;;;;;;;;
121.184;5.06932;10.48383;6653.64;;;;;;;;;
121.784;5.08916;10.6532;6615.654;;;;;;;;;
122.342;5.05196;10.58394;6124.979;;;;;;;;;
122.676;5.00076;10.43775;5362.902;;;;;;;;;
122.944;4.94684;10.30815;4592.2;;;;;;;;;
123.178;4.89168;10.18505;3825.229;;;;;;;;;
123.396;4.83424;10.064;3053.176;;;;;;;;;
123.606;4.77504;9.946144;2274.403;;;;;;;;;
123.808;4.71468;9.828985;1490.334;;;;;;;;;
124;4.65528;9.717643;733.8075;;;;;;;;;
124.146;4.60916;9.633526;166.5909;;;;;;;;;
Specimen;2;;;;;;;;;;;
Specimen label;;;;;;;;;;;;
Width;2.330000;mm;;;;;;;;;;
Thickness;2.570000;mm;;;;;;;;;;
Length;20;mm;;;;;;;;;;
Diameter;9.970000;mm;;;;;;;;;;
Inner diameter;8.000000;mm;;;;;;;;;;
Outer diameter;10;mm;;;;;;;;;;
Wall thickness;1.000000;mm;;;;;;;;;;
Area;0.059881;cm^2;;;;;;;;;;
Linear density;100;tex;;;;;;;;;;
Sled weight;10;N;;;;;;;;;;
Loading span;10;mm;;;;;;;;;;
Support span;100;mm;;;;;;;;;;
Span ratio;2;;;;;;;;;;;
Fixture type;4-point;;;;;;;;;;;
Extensometer;10;mm;;;;;;;;;;
Included;;;;;;;;;;;;
Final width;10;mm;;;;;;;;;;
Final thickness;1.000000;mm;;;;;;;;;;
Final length;100;mm;;;;;;;;;;
Final diameter;5.000000;mm;;;;;;;;;;
Final Inner diameter;8.000000;mm;;;;;;;;;;
Final outer diameter;10;mm;;;;;;;;;;
Final wall thickness;1.000000;mm;;;;;;;;;;
Final area;0.100000;cm^2;;;;;;;;;;
Final linear density;100;tex;;;;;;;;;;
Custom text input  1;;;;;;;;;;;;
Custom text input  2;;;;;;;;;;;;
Custom text input  3;;;;;;;;;;;;
Custom text input  4;;;;;;;;;;;;
Custom text input  5;;;;;;;;;;;;
Custom text input  6;;;;;;;;;;;;
Custom text input  7;;;;;;;;;;;;
Custom text input  8;;;;;;;;;;;;
Custom text input  9;;;;;;;;;;;;
Custom text input 10;;;;;;;;;;;;
Custom text input 11;;;;;;;;;;;;
Custom text input 12;;;;;;;;;;;;
Custom text input 13;;;;;;;;;;;;
Custom text input 14;;;;;;;;;;;;
Custom text input 15;;;;;;;;;;;;
Custom text input 16;;;;;;;;;;;;
Custom text input 17;;;;;;;;;;;;
Custom text input 18;;;;;;;;;;;;
Custom text input 19;;;;;;;;;;;;
Custom text input 20;;;;;;;;;;;;
Custom number input  1;0.000000;;;;;;;;;;;
Custom number input  2;0.000000;;;;;;;;;;;
Custom number input  3;0.000000;;;;;;;;;;;
Custom number input  4;0.000000;;;;;;;;;;;
Custom number input  5;0.000000;;;;;;;;;;;
Custom number input  6;0.000000;;;;;;;;;;;
Custom number input  7;0.000000;;;;;;;;;;;
Custom number input  8;0.000000;;;;;;;;;;;
Custom number input  9;0.000000;;;;;;;;;;;
Custom number input 10;0.000000;;;;;;;;;;;
Time sec;Extension mm;Strain 1 %;Load N;;;;;;;;;
0;4.60852;0.000189059;233.2767;;;;;;;;;
0.1;4.60852;0.0002605981;232.7277;;;;;;;;;
0.2;4.60852;0.0001132326;233.1279;;;;;;;;;
0.3;4.60852;0.0003246646;233.0849;;;;;;;;;
0.4;4.60852;5.605052e-005;232.95;;;;;;;;;
0.5;4.60852;0.0002430073;232.6883;;;;;;;;;
0.6;4.60852;0.000502532;232.7281;;;;;;;;;
0.7;4.60852;0.0001219791;233.2335;;;;;;;;;
0.8;4.6086;4.411913e-005;232.9355;;;;;;;;;
0.9;4.60868;-8.330344e-005;232.8925;;;;;;;;;
1;4.60884;5.859847e-005;232.9389;;;;;;;;;
1.1;4.60908;8.870857e-005;233.2555;;;;;;;;;
1.2;4.60936;-0.0001987703;234.1188;;;;;;;;;
1.3;4.60972;6.320442e-005;234.6412;;;;;;;;;
1.4;4.61012;0.0001192106;235.271;;;;;;;;;
1.5;4.61064;0.0002414883;236.994;;;;;;;;;
1.6;4.61128;0.0003369879;239.0191;;;;;;;;;
1.7;4.61204;0.000611923;241.1086;;;;;;;;;
1.8;4.61292;0.0008707862;245.6555;;;;;;;;;
1.9;4.614;0.00155489;256.603;;;;;;;;;
2;4.61532;0.002659015;276.9017;;;;;;;;;
2.1;4.61684;0.005098469;304.3046;;;;;;;;;
2.2;4.61872;0.006800533;335.6999;;;;;;;;;
2.3;4.621;0.009185916;372.8695;;;;;;;;;
2.4;4.6236;0.01212913;415.2936;;;;;;;;;
2.5;4.62648;0.01507717;462.4092;;;;;;;;;
2.6;4.62972;0.01920757;514.4446;;;;;;;;;
2.7;4.63332;0.0234929;572.4213;;;;;;;;;
2.8;4.63732;0.02822481;636.2477;;;;;;;;;
2.9;4.64176;0.03357127;706.2227;;;;;;;;;
3;4.6466;0.0388295;781.4324;;;;;;;;;
3.1;4.65184;0.04527568;864.45;;;;;;;;;
3.2;4.65752;0.05185932;953.1057;;;;;;;;;
3.3;4.66356;0.05937493;1048.225;;;;;;;;;
3.4;4.67;0.0667773;1148.342;;;;;;;;;
3.5;4.6768;0.07499345;1253.27;;;;;;;;;
3.6;4.68392;0.08366304;1363.046;;;;;;;;;
3.7;4.69144;0.09264001;1476.095;;;;;;;;;
3.8;4.69932;0.1017987;1595.265;;;;;;;;;
3.9;4.7076;0.110979;1721.126;;;;;;;;;
3.998;4.71604;0.120787;1848.132;;;;;;;;;
4.092;4.72452;0.1306218;1974.601;;;;;;;;;
4.184;4.73316;0.1399701;2102.324;;;;;;;;;
4.274;4.74184;0.1499108;2228.807;;;;;;;;;
4.36;4.7504;0.1595189;2354.354;;;;;;;;;
4.446;4.7592;0.1698908;2482.352;;;;;;;;;
4.528;4.76788;0.1799582;2607.857;;;;;;;;;
4.61;4.7768;0.1906241;2735.062;;;;;;;;;
4.69;4.78576;0.2010267;2860.889;;;;;;;;;
4.768;4.79464;0.2113607;2987.133;;;;;;;;;
4.846;4.80368;0.2218387;3114.407;;;;;;;;;
4.922;4.81268;0.2320374;3240.305;;;;;;;;;
4.998;4.82192;0.2420299;3367.415;;;;;;;;;
5.072;4.83112;0.2524838;3493.618;;;;;;;;;
5.144;4.84024;0.262882;3619.662;;;;;;;;;
5.216;4.84948;0.2736046;3747.059;;;;;;;;;
5.288;4.85896;0.2841738;3875.552;;;;;;;;;
5.358;4.8682;0.2954304;4000.894;;;;;;;;;
5.43;4.87776;0.3065174;4129.316;;;;;;;;;
5.5;4.8872;0.3175292;4256.868;;;;;;;;;
5.57;4.89676;0.3287816;4384.682;;;;;;;;;
5.638;4.906241;0.3392756;4509.883;;;;;;;;;
5.706;4.91584;0.3500236;4636.346;;;;;;;;;
5.772;4.92532;0.3610937;4761.552;;;;;;;;;
5.838;4.93492;0.3723706;4887.949;;;;;;;;;
5.904;4.94456;0.3836665;5014.327;;;;;;;;;
5.97;4.95436;0.3958567;5140.186;;;;;;;;;
6.036;4.9642;0.4076356;5265.655;;;;;;;;;
6.102;4.97416;0.4193248;5392.814;;;;;;;;;
6.168;4.98416;0.4313939;5520.165;;;;;;;;;
6.234;4.99432;0.4431718;5647.172;;;;;;;;;
6.3;5.00452;0.4554618;5772.778;;;;;;;;;
6.368;5.015041;0.4685363;5900.186;;;;;;;;;
6.436;5.0256;0.4815939;6026.858;;;;;;;;;
6.506;5.03656;0.4957418;6153.243;;;;;;;;;
6.58;5.04816;0.5108518;6279.895;;;;;;;;;
6.66;5.060841;0.5276672;6405.655;;;;;;;;;
6.754;5.0758;0.5473375;6532.58;;;;;;;;;
6.854;5.0918;0.5680923;6629.742;;;;;;;;;
6.954;5.1078;0.587421;6685.391;;;;;;;;;
7.054;5.12384;0.6047388;6708.623;;;;;;;;;
7.154;5.14012;0.6130708;6654.381;;;;;;;;;
7.254;5.15668;0.6192771;6644.046;;;;;;;;;
7.354;5.17344;0.6265772;6647.436;;;;;;;;;
7.454;5.1902;0.632485;6653.891;;;;;;;;;
7.554;5.2072;0.6363861;6658.017;;;;;;;;;
7.654;5.22448;0.6394784;6656.271;;;;;;;;;
7.754;5.24196;0.6402451;6642.438;;;;;;;;;
7.854;5.2598;0.6406809;6630.045;;;;;;;;;
7.954;5.27776;0.6425299;6629.687;;;;;;;;;
8.054;5.29596;0.6444911;6632.785;;;;;;;;;
8.154;5.31448;0.6474991;6637.361;;;;;;;;;
8.254;5.3332;0.6515674;6642.595;;;;;;;;;
8.354;5.35224;0.6576484;6653.373;;;;;;;;;
8.454;5.3716;0.6700167;6664.824;;;;;;;;;
8.554;5.3912;0.7069237;6664.64;;;;;;;;;
8.654;5.41056;0.7890859;6663.837;;;;;;;;;
8.754;5.42932;0.8963708;6664.578;;;;;;;;;
8.854;5.44724;1.040239;6660.079;;;;;;;;;
8.954;5.46392;1.19688;6667.039;;;;;;;;;
9.054;5.479;1.361719;6672.551;;;;;;;;;
9.154;5.492441;1.512139;6675.895;;;;;;;;;
9.254;5.50416;1.63459;6674.388;;;;;;;;;
9.354;5.51436;1.719061;6657.998;;;;;;;;;
9.454;5.52308;1.778267;6662.033;;;;;;;;;
9.554;5.53032;1.8306;6671.485;;;;;;;;;
9.654;5.536;1.881402;6672.885;;;;;;;;;
9.754;5.5402;1.920363;6674.536;;;;;;;;;
9.854;5.54304;1.94785;6675.146;;;;;;;;;
9.954;5.54452;1.964583;6670.716;;;;;;;;;
10.054;5.54488;1.973955;6659.69;;;;;;;;;
10.154;5.5448;1.978537;6646.468;;;;;;;;;
10.254;5.544481;1.981803;6635.668;;;;;;;;;
10.354;5.5436;1.983316;6627.177;;;;;;;;;
10.454;5.542081;1.98476;6617.58;;;;;;;;;
10.554;5.53996;1.985274;6606.55;;;;;;;;;
10.654;5.53712;1.985231;6589.106;;;;;;;;;
10.754;5.53348;1.98323;6553.338;;;;;;;;;
10.854;5.52884;1.978688;6483.386;;;;;;;;;
10.954;5.52316;1.972786;6394.938;;;;;;;;;
11.054;5.51652;1.965315;6293.853;;;;;;;;;
11.154;5.50896;1.956881;6180.605;;;;;;;;;
11.252;5.50064;1.946916;6054.929;;;;;;;;;
11.34;5.49232;1.936564;5929.536;;;;;;;;;
11.422;5.48396;1.926386;5804.497;;;;;;;;;
11.5;5.47536;1.916353;5676.745;;;;;;;;;
11.574;5.46668;1.90613;5548.87;;;;;;;;;
11.644;5.45816;1.895792;5423.517;;;;;;;;;
11.712;5.449521;1.885471;5297.579;;;;;;;;;
11.778;5.44076;1.875487;5169.94;;;;;;;;;
11.842;5.432001;1.864642;5042.718;;;;;;;;;
11.904;5.42312;1.853869;4915.834;;;;;;;;;
11.966;5.41396;1.842382;4786.973;;;;;;;;;
12.026;5.404881;1.830736;4658.514;;;;;;;;;
12.084;5.39588;1.820622;4532.838;;;;;;;;;
12.142;5.38668;1.80939;4404.04;;;;;;;;;
12.2;5.37744;1.798473;4275.278;;;;;;;;;
12.258;5.367961;1.787673;4146.536;;;;;;;;;
12.314;5.3586;1.776797;4018.566;;;;;;;;;
12.37;5.34916;1.765176;3889.321;;;;;;;;;
12.424;5.33984;1.754339;3762.477;;;;;;;;;
12.478;5.33032;1.742929;3634.629;;;;;;;;;
12.532;5.32072;1.731092;3505.871;;;;;;;;;
12.584;5.31136;1.719045;3380.538;;;;;;;;;
12.636;5.30184;1.707426;3252.936;;;;;;;;;
12.688;5.29228;1.695766;3124.624;;;;;;;;;
12.74;5.28252;1.684606;2996.136;;;;;;;;;
12.792;5.27272;1.673152;2866.094;;;;;;;;;
12.842;5.26324;1.661981;2739.72;;;;;;;;;
12.892;5.25372;1.650399;2612.874;;;;;;;;;
12.942;5.24424;1.638831;2486.895;;;;;;;;;
12.994;5.23428;1.62651;2358.085;;;;;;;;;
13.044;5.22468;1.615327;2232.254;;;;;;;;;
13.094;5.21508;1.603677;2106.673;;;;;;;;;
13.144;5.205401;1.591768;1980.547;;;;;;;;;
13.194;5.19564;1.580223;1854.204;;;;;;;;;
13.244;5.18588;1.568938;1728.838;;;;;;;;;
13.294;5.176041;1.557301;1602.689;;;;;;;;;
13.344;5.16624;1.545353;1475.312;;;;;;;;;
13.394;5.15644;1.533297;1348.511;;;;;;;;;
13.446;5.146241;1.520921;1218.893;;;;;;;;;
13.498;5.136;1.508725;1089.008;;;;;;;;;
13.548;5.12616;1.497357;963.3726;;;;;;;;;
13.598;5.11632;1.485293;837.3058;;;;;;;;;
13.65;5.10612;1.472995;708.165;;;;;;;;;
13.702;5.09592;1.460655;580.8915;;;;;;;;;
13.754;5.08584;1.448314;453.893;;;;;;;;;
13.806;5.0758;1.435807;327.939;;;;;;;;;
13.86;5.0654;1.422009;198.2542;;;;;;;;;
13.914;5.05512;1.409211;72.1189;;;;;;;;;
13.968;5.044841;1.396782;-53.36448;;;;;;;;;
14.024;5.03424;1.383811;-182.6826;;;;;;;;;
14.08;5.02372;1.371059;-310.2387;;;;;;;;;
14.138;5.01292;1.357682;-439.2785;;;;;;;;;
14.196;5.00224;1.344523;-565.1383;;;;;;;;;
14.256;4.99132;1.330538;-692.471;;;;;;;;;
14.318;4.98028;1.315951;-819.6944;;;;;;;;;
14.382;4.96908;1.301604;-946.0169;;;;;;;;;
14.448;4.95772;1.286753;-1072.161;;;;;;;;;
14.518;4.94592;1.271419;-1200.503;;;;;;;;;
14.59;4.934;1.255741;-1326.61;;;;;;;;;
14.666;4.92176;1.239038;-1451.737;;;;;;;;;
14.748;4.90884;1.220587;-1577.617;;;;;;;;;
14.836;4.89532;1.199133;-1703.638;;;;;;;;;
14.934;4.8808;1.166481;-1830.223;;;;;;;;;
15.034;4.8668;1.105834;-1919.497;;;;;;;;;
15.134;4.85404;1.017469;-1935.844;;;;;;;;;
15.234;4.84284;0.9350289;-1916.987;;;;;;;;;
15.334;4.83296;0.8712426;-1895.504;;;;;;;;;
15.434;4.82444;0.82145;-1877.12;;;;;;;;;
15.534;4.81736;0.7818921;-1860.973;;;;;;;;;
15.634;4.8116;0.7515384;-1848.49;;;;;;;;;
15.734;4.80704;0.7275119;-1838.061;;;;;;;;;
15.834;4.8038;0.7098864;-1829.247;;;;;;;;;
15.934;4.80188;0.6983237;-1820.059;;;;;;;;;
16.034;4.80116;0.6921682;-1811.112;;;;;;;;;
16.134;4.80112;0.6900469;-1801.189;;;;;;;;;
16.234;4.8014;0.6889327;-1793.316;;;;;;;;;
16.334;4.8022;0.6884118;-1786.637;;;;;;;;;
16.434;4.80376;0.6886372;-1779.871;;;;;;;;;
16.534;4.80612;0.6900884;-1769.943;;;;;;;;;
16.634;4.80948;0.6967202;-1746.868;;;;;;;;;
16.734;4.81396;0.7097575;-1704.538;;;;;;;;;
16.834;4.81964;0.7260996;-1649.357;;;;;;;;;
16.934;4.82656;0.7455205;-1580.28;;;;;;;;;
17.034;4.8346;0.7676709;-1498.417;;;;;;;;;
17.134;4.84376;0.7928377;-1399.55;;;;;;;;;
17.234;4.85408;0.8217628;-1285.312;;;;;;;;;
17.332;4.8652;0.8513479;-1157.811;;;;;;;;;
17.42;4.87592;0.8787699;-1032.489;;;;;;;;;
17.502;4.8866;0.9049523;-904.6502;;;;;;;;;
17.578;4.89708;0.9304686;-776.3736;;;;;;;;;
17.648;4.90724;0.9533192;-650.302;;;;;;;;;
17.714;4.91724;0.9754878;-524.1586;;;;;;;;;
17.764;4.92512;0.9923794;-425.1656;;;;;;;;;