File: Tensile LDPE/data/Tensile_testing_LDPE_CD_Data_CD_strain_percent_stress_MPa.csv
Strain1[%],Stress1[MPa],Strain2,Stress2,Strain3,Stress3,Strain4,Stress4,Strain5,Stress5,Strain6,Stress6,Strain7,Stress7,Strain8,Stress8,Strain9,Stress9,Strain10,Stress10
0,0.618992,0,0.612641,0,0.588768,0,0.609592,0,0.612566,0,0.608254,0,0.596968,0,0.596497,0,0.61358,0,0.588177
0.0618978,0.931129,0.105411,1.07494,0.109955,1.05678,-7.61541e-07,0.608795,0.0943651,0.981951,0.0563976,0.878021,0.072457,0.948166,0.0616243,0.9047,0.12749,1.15147,0.138534,1.17718
1.51288,4.96134,1.55976,4.99128,1.55408,4.94728,1.35145,4.28916,1.54832,4.73629,1.50267,4.66363,1.52272,4.90143,1.50596,4.94187,1.57881,5.10808,1.58937,5.04735
2.96698,7.18417,3.01532,7.1459,2.99893,7.15991,2.80404,6.50626,3.00373,6.86183,2.95251,6.79353,2.97579,7.07428,2.95373,7.21351,3.031,7.34005,3.04059,7.21432
4.42129,8.47997,4.47099,8.40636,4.44364,8.49456,4.25666,7.82726,4.45946,8.12866,4.40261,8.06461,4.4288,8.34038,4.401777,8.56451,4.4831,8.66485,4.49199,8.496
5.87563,9.20259,5.92631,9.11497,5.88871,9.27283,5.70897,8.59195,5.91463,8.85558,5.85235,8.79612,5.88155,9.04802,5.84934,9.33242,5.93502,9.41943,5.94318,9.22653
7.32976,9.55044,7.38201,9.45999,7.33331,9.67495,7.16173,8.98295,7.37022,9.22196,7.30218,9.16676,7.33454,9.39198,7.29754,9.71787,7.3872,9.79724,7.39435,9.58639
8.78411,9.65914,8.83753,9.57556,8.77822,9.82624,8.61413,9.13352,8.82576,9.35502,8.75229,9.3027,8.78745,9.50354,8.74522,9.85133,8.83952,9.92122,8.84573,9.70838
10.2384,9.62759,10.293,9.55559,10.2231,9.82618,10.0667,9.1372,10.2812,9.34932,10.202,9.29767,10.2402,9.47992,10.1927,9.83373,10.2914,9.90002,10.2969,9.68717
11.6925,9.53,11.7487,9.46793,11.6678,9.75079,11.5194,9.06833,11.7367,9.2708,11.652,9.22464,11.6933,9.39105,11.6407,9.74133,11.7434,9.80672,11.748,9.59906
13.1467,9.41799,13.2041,9.36353,13.1128,9.64583,12.9717,8.97038,13.1922,9.17378,13.1021,9.12964,13.1462,9.28461,13.0885,9.6282,13.1956,9.69331,13.1995,9.48943
14.6011,9.31641,14.6598,9.2665,14.5577,9.54271,14.4244,8.87727,14.6476,9.08049,14.5518,9.03615,14.5993,9.18695,14.5361,9.51899,14.6475,9.58601,14.6506,9.38689
16.0553,9.23937,16.1152,9.1906,16.0024,9.4566,15.8768,8.80355,16.1031,9.00457,16.0019,8.96415,16.0522,9.10854,15.9841,9.42858,16.0997,9.50047,16.102,9.30881
17.5096,9.1912,17.5707,9.14113,17.4475,9.39935,17.3292,8.75539,17.5585,8.95451,17.4518,8.91585,17.5049,9.0568,17.4318,9.36434,17.5517,9.44316,17.5534,9.25536
18.9638,9.17127,19.0263,9.11491,18.8921,9.3683,18.7819,8.73059,19.014,8.92877,18.9015,8.89432,18.9579,9.03187,18.8797,9.32715,19.004,9.41633,19.0044,9.23097
20.4182,9.17331,20.4819,9.11326,20.3369,9.35824,20.2345,8.7289,20.4697,8.92769,20.3516,8.89413,20.4107,9.02826,20.3276,9.31066,20.4561,9.41042,20.4557,9.22951
21.8724,9.18922,21.9374,9.12589,21.7819,9.36923,21.687,8.74378,21.925,8.94219,21.8014,8.91015,21.8636,9.04569,21.775,9.31644,21.908,9.42384,21.9069,9.24231
23.3265,9.21935,23.3932,9.15346,23.2265,9.39137,23.1397,8.77089,23.3807,8.9741,23.2513,8.93609,23.3167,9.06604,23.2232,9.33499,23.36,9.44831,23.3581,9.2686
24.7809,9.25306,24.8485,9.18813,24.6716,9.4206,24.5919,8.80578,24.836,9.01378,24.7015,8.96962,24.7696,9.09909,24.6708,9.36213,24.8123,9.47726,24.8096,9.29985
26.235,9.29061,26.3041,9.22751,26.1165,9.4577,26.0446,8.84476,26.2914,9.05676,26.1512,9.0063,26.2226,9.1421,26.1183,9.39552,26.2641,9.51225,26.2607,9.33787
27.6893,9.32848,27.7597,9.26685,27.5613,9.49781,27.4972,8.88639,27.747,9.10152,27.6012,9.04544,27.6755,9.18188,27.5666,9.43284,27.7163,9.54961,27.712,9.37719
29.1435,9.36661,29.2149,9.30716,29.0062,9.54084,28.9494,8.92562,29.2022,9.14378,29.0512,9.08726,29.1282,9.22062,29.0143,9.47015,29.1685,9.58852,29.1634,9.41629
30.598,9.40528,30.6707,9.34805,30.4508,9.58237,30.4023,8.96805,30.6579,9.18629,30.5008,9.12824,30.5813,9.25988,30.462,9.51091,30.6204,9.6277,30.6143,9.45582
32.0522,9.44445,32.1263,9.38867,31.8956,9.6216,31.8547,9.00813,32.1135,9.22724,31.9509,9.16839,32.0341,9.3012,31.9099,9.55101,32.0726,9.66658,32.0657,9.49532
33.5062,9.4809,33.5817,9.42512,33.3407,9.65959,33.3072,9.04563,33.5688,9.26661,33.4008,9.20487,33.487,9.33794,33.3574,9.58669,33.5245,9.70347,33.5171,9.52827
34.9605,9.51168,35.0374,9.45772,34.7854,9.69087,34.7599,9.08119,35.0243,9.30129,34.8508,9.23886,34.9401,9.37035,34.8053,9.61571,34.9767,9.73306,34.9683,9.55812
36.4149,9.53812,36.4928,9.4882,36.2304,9.72093,36.2122,9.11304,36.4799,9.33113,36.3008,9.2709,36.3929,9.4006,36.2532,9.6426,36.4288,9.7624,36.4197,9.58877
37.869,9.56083,37.9483,9.51348,37.6753,9.74584,37.6648,9.13998,37.9352,9.35607,37.7506,9.29771,37.8459,9.42546,37.7009,9.66439,37.8807,9.78451,37.8708,9.61215
39.3233,9.58042,39.404,9.53573,39.1199,9.77128,39.1174,9.16283,39.3909,9.38033,39.2005,9.32129,39.2987,9.44752,39.1491,9.68465,39.3331,9.80296,39.322,9.63105
40.7778,9.59898,40.8594,9.55701,40.5648,9.78962,40.5698,9.18474,40.8462,9.40413,40.6505,9.34357,40.7518,9.46697,40.5966,9.70374,40.7853,9.82282,40.7734,9.64757
42.2318,9.61344,42.3152,9.57397,42.0096,9.80322,42.0226,9.20377,42.3018,9.42164,42.1002,9.35659,42.2046,9.48009,42.0443,9.71458,42.237,9.83801,42.2244,9.66111
43.6861,9.62354,43.7707,9.58697,43.4545,9.81384,43.4751,9.21677,43.7574,9.43767,43.5502,9.36817,43.6575,9.48893,43.4923,9.72287,43.6892,9.84464,43.6758,9.67141
45.1402,9.6294,45.226,9.59495,44.8995,9.82204,44.9274,9.22494,45.2126,9.45096,45.0003,9.37806,45.1105,9.49809,44.9399,9.72679,45.1411,9.84634,45.1272,9.67815
46.5946,9.63046,46.6817,9.59896,46.3442,9.82639,46.3801,9.23155,46.6682,9.45975,46.4501,9.38201,46.5636,9.50519,46.3878,9.72962,46.5932,9.84891,46.5783,9.68358
48.0489,9.63141,48.1371,9.60109,47.7892,9.82867,47.8324,9.23558,48.1236,9.46524,47.9001,9.38578,48.0162,9.50743,47.8356,9.73183,48.0455,9.84842,48.0297,9.6839
49.503,9.62909,49.5927,9.60075,49.234,9.82841,49.285,9.23654,49.579,9.47075,49.3498,9.38828,49.4693,9.51023,49.2833,9.72969,49.4973,9.84416,49.4809,9.68111
50.9574,9.6249,51.0484,9.59866,50.6786,9.82108,50.7377,9.23522,51.0346,9.47419,50.7999,9.38575,50.9221,9.50799,50.7313,9.72593,50.9498,9.83923,50.9321,9.67544
52.4118,9.61678,52.5038,9.5945,52.1236,9.81302,52.1901,9.22968,52.4901,9.47544,52.2498,9.38104,52.3749,9.50379,52.1789,9.71786,52.4018,9.83033,52.3834,9.66786
53.8658,9.60285,53.9595,9.58585,53.5685,9.80769,53.6429,9.22246,53.9456,9.4749,53.6995,9.37227,53.828,9.4977,53.6266,9.70724,53.8534,9.81581,53.8344,9.65894
55.3201,9.58928,55.415,9.5763,55.0132,9.79893,55.0953,9.2137,55.4012,9.4722,55.1497,9.36546,55.2809,9.48912,55.0747,9.69462,55.3059,9.8014,55.2859,9.64611
56.7744,9.5707,56.8703,9.56304,56.4582,9.78931,56.5476,9.2012,56.8564,9.46762,56.5995,9.35626,56.734,9.47653,56.5222,9.6836,56.758,9.7871,56.7372,9.63158
58.2284,9.5528,58.3261,9.54729,57.903,9.77775,58.0004,9.1876,58.3121,9.46117,58.0494,9.34411,58.1869,9.46438,57.9701,9.66714,58.2098,9.76909,58.1884,9.61361
59.6829,9.53359,59.7815,9.5297,59.3479,9.76181,59.4527,9.17328,59.7675,9.45232,59.4994,9.3271,59.6395,9.4481,59.4181,9.64879,59.6622,9.74845,59.6397,9.59473
61.137,9.51141,61.237,9.51116,60.7927,9.74423,60.9052,9.1583,61.2228,9.44304,60.9493,9.31034,61.0926,9.42894,60.8657,9.62981,61.114,9.72585,61.091,9.57196
62.5915,9.4854,62.6928,9.48766,62.2374,9.72409,62.358,9.13771,62.6786,9.42934,62.3992,9.29099,62.5457,9.40986,62.3136,9.60559,62.5662,9.69834,62.542,9.55147
64.0457,9.45989,64.1481,9.46187,63.6824,9.70462,63.8103,9.11833,64.1339,9.41369,63.8491,9.2666,63.9983,9.38718,63.7613,9.57891,64.0184,9.67076,63.9935,9.52582
65.4996,9.43494,65.6038,9.43355,65.1272,9.68512,65.263,9.09596,65.5894,9.39636,65.299,9.242,65.4514,9.36126,65.209,9.55157,65.4702,9.64126,65.4446,9.5004
66.9541,9.40918,67.0594,9.40647,66.572,9.65949,66.7155,9.0718,67.045,9.37692,66.7491,9.2128,66.9043,9.33524,66.6569,9.5247,66.9226,9.61066,66.896,9.47252
68.4085,9.38056,68.5148,9.3758,68.017,9.63339,68.1679,9.04771,68.5003,9.35664,68.1989,9.18277,68.3571,9.30598,68.1047,9.49287,68.3745,9.57777,68.3474,9.43974
69.8624,9.35181,69.9704,9.34054,69.4619,9.60258,69.6206,9.02045,69.9558,9.33192,69.6487,9.14598,69.8102,9.2723,69.5525,9.45747,69.8265,9.53923,69.7984,9.40046
71.317,9.31755,71.4259,9.30354,70.9065,9.57039,71.073,8.98962,71.4113,9.30512,71.0988,9.10526,71.2629,9.23308,71.0005,9.4196,71.2789,9.49505,71.2498,9.35421
72.7711,9.27904,72.8814,9.26519,72.3514,9.53298,72.5255,8.95598,72.8667,9.27911,72.5485,9.06269,72.7161,9.19185,72.448,9.37785,72.7309,9.44461,72.7009,9.30003
74.2253,9.23762,74.3372,9.22458,73.7962,9.49773,73.9783,8.91999,74.3225,9.25051,73.9984,9.02063,74.1689,9.14822,73.8957,9.33957,74.1828,9.38364,74.1521,9.2336
75.6797,9.18788,75.7926,9.18038,75.2412,9.45513,75.4307,8.88076,75.7779,9.22021,75.4484,8.97099,75.6216,9.09925,75.3437,9.29472,75.635,9.29254,75.6035,9.13132
77.1336,9.13012,77.248,9.13439,76.686,9.40832,76.8831,8.8369,77.2331,9.18624,76.8984,8.91353,77.0749,9.04679,76.7914,9.23767,,,,
78.5883,9.06389,78.7037,9.08525,78.1308,9.35946,78.3358,8.79032,78.6888,9.14645,78.3484,8.85405,78.5278,8.99038,78.2394,9.0723,,,,
80.0425,8.98974,80.159,9.02704,79.5757,9.30643,79.7881,8.73928,80.1441,9.10023,79.7982,8.79159,79.9804,8.92794,,,,,,
81.4963,8.9154,81.6147,8.97044,81.0204,9.24981,81.2407,8.68468,81.5996,9.05105,81.2481,8.72584,81.4336,8.86407,,,,,,
82.9511,8.84792,83.0704,8.91888,82.4653,9.19418,82.6934,8.62729,83.0553,9.00074,82.6982,8.65682,82.8862,8.79914,,,,,,
84.4052,8.77801,84.5259,8.86683,83.9101,9.14005,84.1459,8.57213,84.5107,8.94562,84.1478,8.56837,84.3392,8.73891,,,,,,
,,85.9816,8.82841,85.3551,9.08913,85.5987,8.52699,85.9663,8.89426,,,85.7923,8.6815,,,,,,
,,87.4369,8.80612,86.8,9.05104,87.0509,8.48963,87.4216,8.83873,,,,,,,,,,
,,88.8924,8.80608,88.2448,9.02558,88.5034,8.44803,88.877,8.78765,,,,,,,,,,
,,90.3481,8.82227,89.6896,9.00912,,,90.3327,8.73441,,,,,,,,,,
,,91.8033,8.84788,91.1346,8.93366,,,91.788,8.4242,,,,,,,,,,
,,93.2591,8.87937,,,,,,,,,,,,,,,,
,,94.7148,8.90861,,,,,,,,,,,,,,,,
,,96.1702,8.93638,,,,,,,,,,,,,,,,
,,97.6258,8.9578,,,,,,,,,,,,,,,,
,,99.0812,8.97213,,,,,,,,,,,,,,,,
,,100.537,8.97584,,,,,,,,,,,,,,,,
,,101.992,8.95017,,,,,,,,,,,,,,,,
,,103.277,8.50831,,,,,,,,,,,,,,,,